# LabVIEW Measurement	
# Writer_Version	0.92
# Reader_Version	1
# Separator	Tab
# Multi_Headings	No
# X_Columns	No
# Time_Pref	Absolute
# Operator	Labview-Praktikum
# Description	Messergebnisse zur Aufgabe 1, Hochtemperatursupraleitung
# Date	2013/02/02
# Time	10:57:34.421875
# ***End_of_Header***	
# 	
# Channels	2		
# Samples	1	1	
# Date	2013/02/02	2013/02/02	
# Time	10:57:34.421875	10:57:34.421875	
# X_Dimension	Time	Time	
# X0	0.0000000000000000E+0	0.0000000000000000E+0	
# Delta_X	1.000000	1.000000	
# ***End_of_Header***			
# X_Value	Untitled	Untitled 1	Comment
	61.491044	-0.684273
	60.456949	-0.696255
	60.119981	-0.700446
	59.780708	-0.704703
	59.439981	-0.708961
	59.096702	-0.713199
	58.752188	-0.717649
	58.407606	-0.722142
	58.061896	-0.726597
	57.716541	-0.731345
	57.370549	-0.735288
	57.024331	-0.739576
	56.678711	-0.744108
	56.333378	-0.748822
	55.988825	-0.753441
	55.645664	-0.758156
	55.304557	-0.762773
	54.965890	-0.767631
	54.627735	-0.772703
	54.289603	-0.777499
	53.952016	-0.782488
	53.613224	-0.787526
	53.274660	-0.792689
	52.936745	-0.797697
	52.598979	-0.802829
	52.261474	-0.807912
	51.925561	-0.812867
	51.588944	-0.818261
	51.253201	-0.823784
	50.917822	-0.829180
	50.582229	-0.834473
	50.247532	-0.838755
	49.912291	-0.844070
	49.577277	-0.849529
	49.244033	-0.855209
	48.910109	-0.860775
	48.577828	-0.866365
	48.244652	-0.871996
	47.912937	-0.877597
	47.582139	-0.883820
	47.251827	-0.889690
	46.921503	-0.895289
	46.588114	-0.900822
	46.250060	-0.906579
	45.908280	-0.911778
	45.564260	-0.917520
	45.219910	-0.923118
	44.876519	-0.928667
	44.532708	-0.934288
	44.189042	-0.940230
	43.846682	-0.945849
	43.505020	-0.951903
	43.164797	-0.957631
	42.825732	-0.963371
	42.488522	-0.969365
	42.153233	-0.975637
	41.820910	-0.980846
	41.490482	-0.987467
	41.162036	-0.993927
	40.837044	-1.000566
	40.514717	-1.007215
	40.200649	-1.013904
	39.899585	-1.020363
	39.601316	-1.027256
	39.305041	-1.034699
	39.009996	-1.042326
	38.716752	-1.050274
	38.430346	-1.059093
	38.146251	-1.068382
	37.867393	-1.078628
	37.594899	-1.090421
	37.325605	-1.102374
	37.065199	-1.117996
	36.812466	-1.134472
	36.568631	-1.152379
	36.334270	-1.174020
	36.111874	-1.201359
	35.903651	-1.231590
	35.709726	-1.267893
	35.533044	-1.310872
	35.376707	-1.360459
	35.244228	-1.412866
	35.137667	-1.464633
	35.059028	-1.508467
	35.008003	-1.540430
	34.978640	-1.563659
	34.962516	-1.577334
	34.956757	-1.585548
	34.954767	-1.589891
	34.954152	-1.591223
	34.953861	-1.592491
	34.953705	-1.592900
	34.953548	-1.593091
	34.953526	-1.593105
	34.953448	-1.593046
	34.953436	-1.593033
	34.953336	-1.593104
	34.953358	-1.592852
	34.953347	-1.593196
	34.953291	-1.592823
	34.953257	-1.593770
	34.953246	-1.593804
	34.953146	-1.598233
	34.953168	-1.597073
	34.953235	-1.597919
	34.953202	-1.598749
	34.953224	-1.600383
	34.953146	-1.606782
	34.953190	-1.607084
	34.953101	-1.607617
	34.953101	-1.607738
	34.953146	-1.607745
	34.953112	-1.608159
	34.953079	-1.608578
	34.953112	-1.608609
	34.953056	-1.609820
	34.953123	-1.609305
	34.953056	-1.610962
	34.953067	-1.612410
	34.953157	-1.612639
	34.953000	-1.613355
	34.953034	-1.618457
	34.953079	-1.619454
	34.953079	-1.624456
	34.953045	-1.631322
	34.953023	-1.593761
	34.953079	-1.600196
	34.952888	-1.601361
	34.953034	-1.597520
	34.953056	-1.597318
	34.953011	-1.598654
	34.952989	-1.599190
	34.952967	-1.599778
	34.953056	-1.599455
	34.952989	-1.599321
	34.953034	-1.604323
	34.952933	-1.605688
	34.952978	-1.603736
	34.953000	-1.605691
	34.953011	-1.606532
	34.953056	-1.606601
	34.953034	-1.607492
	34.952922	-1.607743
	34.952989	-1.608991
	34.953101	-1.608360
	34.952967	-1.610889
	34.952989	-1.611973
	34.953056	-1.613390
	34.953022	-1.617057
	34.953056	-1.621954
	34.953011	-1.838746
	34.953000	-1.553441
	34.952978	-1.553513
	34.952989	-1.554104
	34.953034	-1.554837
	34.952978	-1.555193
	34.953090	-1.555474
	34.953034	-1.555924
	34.953011	-1.556450
	34.953022	-1.557538
	34.952933	-1.557087
	34.952944	-1.557971
